# Rest Wavelength (angstroms) using z=0.016561, Observed Flux, pPXF Best-fit Model
     8416.02740         1.01076         0.99590
     8417.06555         1.00774         0.99402
     8418.10384         0.98643         0.99207
     8419.14225         0.97635         0.99008
     8420.18078         1.00286         0.98807
     8421.21945         0.99593         0.98607
     8422.25824         0.98721         0.98411
     8423.29717         0.98688         0.98222
     8424.33622         0.98580         0.98042
     8425.37540         0.97722         0.97877
     8426.41470         0.98550         0.97727
     8427.45414         0.98416         0.97594
     8428.49370         0.98377         0.97476
     8429.53339         0.98801         0.97370
     8430.57321         0.97203         0.97273
     8431.61316         0.96459         0.97178
     8432.65324         0.97065         0.97082
     8433.69344         0.98054         0.96980
     8434.73378         0.97009         0.96871
     8435.77424         0.99170         0.96757
     8436.81483         0.99668         0.96642
     8437.85554         0.95881         0.96531
     8438.89639         0.94656         0.96430
     8439.93737         0.94787         0.96347
     8440.97847         0.94289         0.96284
     8442.01970         0.95962         0.96244
     8443.06106         0.97390         0.96228
     8444.10255         0.96370         0.96231
     8445.14417         0.96285         0.96249
     8446.18591         0.97832         0.96277
     8447.22779         0.97864         0.96308
     8448.26979         0.96434         0.96339
     8449.31192         0.96205         0.96365
     8450.35418         0.96751         0.96384
     8451.39657         0.96453         0.96396
     8452.43908         0.95169         0.96401
     8453.48173         0.94297         0.96401
     8454.52450         0.96375         0.96397
     8455.56741         0.97460         0.96391
     8456.61044         0.97736         0.96383
     8457.65360         0.94852         0.96375
     8458.69689         0.94727         0.96366
     8459.74030         0.97150         0.96355
     8460.78385         0.96366         0.96341
     8461.82752         0.96178         0.96323
     8462.87133         0.96758         0.96299
     8463.91526         0.94750         0.96270
     8464.95932         0.96092         0.96238
     8466.00351         0.97584         0.96204
     8467.04783         0.95184         0.96173
     8468.09228         0.94703         0.96150
     8469.13685         0.93421         0.96141
     8470.18156         0.94241         0.96150
     8471.22639         0.94254         0.96181
     8472.27135         0.93313         0.96233
     8473.31645         0.94349         0.96303
     8474.36167         0.96366         0.96386
     8475.40702         0.95430         0.96473
     8476.45249         0.96946         0.96554
     8477.49810         0.97850         0.96618
     8478.54384         0.98845         0.96658
     8479.58970         0.95948         0.96665
     8480.63570         0.94839         0.96637
     8481.68182         0.92644         0.96576
     8482.72808         0.92402         0.96484
     8483.77446         0.97223         0.96370
     8484.82097         0.97778         0.96241
     8485.86761         0.97121         0.96103
     8486.91438         0.96301         0.95959
     8487.96127         0.95224         0.95809
     8489.00830         0.94794         0.95648
     8490.05546         0.94476         0.95466
     8491.10274         0.94453         0.95252
     8492.15016         0.94214         0.94995
     8493.19770         0.92968         0.94687
     8494.24538         0.94004         0.94326
     8495.29318         0.94435         0.93920
     8496.34111         0.95419         0.93486
     8497.38917         0.95207         0.93051
     8498.43736         0.94145         0.92648
     8499.48568         0.93344         0.92312
     8500.53413         0.90830         0.92076
     8501.58271         0.90691         0.91966
     8502.63141         0.90956         0.91997
     8503.68025         0.91927         0.92168
     8504.72922         0.93730         0.92466
     8505.77831         0.95281         0.92865
     8506.82754         0.96487         0.93330
     8507.87689         0.95678         0.93824
     8508.92638         0.94753         0.94308
     8509.97599         0.94998         0.94753
     8511.02573         0.94407         0.95138
     8512.07560         0.94186         0.95452
     8513.12561         0.96410         0.95696
     8514.17574         0.97723         0.95878
     8515.22600         0.97631         0.96012
     8516.27639         0.97025         0.96113
     8517.32691         0.98135         0.96193
     8518.37756         0.98279         0.96260
     8519.42834         0.96836         0.96316
     8520.47925         0.97595         0.96357
     8521.53028         0.96212         0.96373
     8522.58145         0.96536         0.96353
     8523.63275         0.97323         0.96286
     8524.68418         0.96324         0.96163
     8525.73573         0.95781         0.95981
     8526.78742         0.96436         0.95739
     8527.83924         0.95832         0.95443
     8528.89118         0.93669         0.95098
     8529.94326         0.93410         0.94710
     8530.99547         0.94641         0.94283
     8532.04780         0.94894         0.93816
     8533.10027         0.94391         0.93301
     8534.15286         0.93059         0.92729
     8535.20559         0.91531         0.92089
     8536.25844         0.91175         0.91371
     8537.31143         0.90756         0.90577
     8538.36454         0.89969         0.89716
     8539.41779         0.89101         0.88815
     8540.47116         0.87309         0.87914
     8541.52467         0.85222         0.87065
     8542.57830         0.85210         0.86328
     8543.63206         0.85741         0.85761
     8544.68596         0.85931         0.85416
     8545.73998         0.88231         0.85328
     8546.79414         0.85154         0.85514
     8547.84842         0.84637         0.85965
     8548.90284         0.88018         0.86652
     8549.95738         0.87056         0.87528
     8551.01206         0.89237         0.88535
     8552.06686         0.90080         0.89611
     8553.12180         0.89982         0.90697
     8554.17686         0.91051         0.91746
     8555.23206         0.91925         0.92724
     8556.28738         0.94662         0.93613
     8557.34284         0.94615         0.94408
     8558.39842         0.95055         0.95116
     8559.45414         0.95147         0.95750
     8560.50999         0.95641         0.96327
     8561.56596         0.97610         0.96862
     8562.62207         0.98780         0.97368
     8563.67830         0.97723         0.97851
     8564.73467         0.96158         0.98313
     8565.79117         0.97603         0.98753
     8566.84780         0.98945         0.99166
     8567.90456         1.00778         0.99547
     8568.96144         0.99817         0.99891
     8570.01846         1.00353         1.00194
     8571.07561         1.01176         1.00454
     8572.13289         1.01022         1.00672
     8573.19030         1.01850         1.00849
     8574.24784         1.02230         1.00990
     8575.30551         1.01306         1.01097
     8576.36332         1.01348         1.01176
     8577.42125         0.98949         1.01232
     8578.47931         0.99833         1.01269
     8579.53750         0.99642         1.01292
     8580.59583         1.00067         1.01306
     8581.65428         1.00723         1.01315
     8582.71286         1.03676         1.01323
     8583.77158         1.00572         1.01334
     8584.83043         1.01298         1.01350
     8585.88940         1.03365         1.01372
     8586.94851         1.02959         1.01398
     8588.00775         1.00267         1.01427
     8589.06712         1.02304         1.01455
     8590.12661         1.01537         1.01478
     8591.18624         1.01925         1.01493
     8592.24600         1.01860         1.01498
     8593.30590         1.01839         1.01492
     8594.36592         1.02382         1.01476
     8595.42607         1.01302         1.01454
     8596.48635         1.01936         1.01431
     8597.54677         1.01602         1.01414
     8598.60731         1.01984         1.01409
     8599.66799         1.02112         1.01422
     8600.72880         1.02416         1.01456
     8601.78973         1.00879         1.01512
     8602.85080         1.02335         1.01589
     8603.91200         1.02343         1.01683
     8604.97333         1.05959         1.01787
     8606.03479         0.99850         1.01897
     8607.09638         1.01811         1.02006
     8608.15811         1.04905         1.02111
     8609.21996         1.02992         1.02210
     8610.28195         1.01872         1.02303
     8611.34406         1.00533         1.02394
     8612.40631         1.01868         1.02485
     8613.46869         1.00860         1.02581
     8614.53120         1.02701         1.02686
     8615.59384         1.01702         1.02800
     8616.65661         1.03548         1.02923
     8617.71951         1.03775         1.03053
     8618.78254         1.02851         1.03187
     8619.84571         1.01212         1.03319
     8620.90900         1.02326         1.03445
     8621.97243         1.03984         1.03562
     8623.03599         1.02162         1.03665
     8624.09968         1.03130         1.03755
     8625.16350         1.05903         1.03830
     8626.22745         1.03679         1.03890
     8627.29153         1.05175         1.03937
     8628.35575         1.04267         1.03971
     8629.42009         1.05313         1.03992
     8630.48457         1.04985         1.04001
     8631.54918         1.01534         1.03997
     8632.61392         1.01026         1.03981
     8633.67879         1.02141         1.03953
     8634.74379         1.04321         1.03914
     8635.80892         1.03591         1.03863
     8636.87419         1.01771         1.03798
     8637.93958         1.01378         1.03716
     8639.00511         1.02509         1.03614
     8640.07077         1.03499         1.03483
     8641.13656         1.01341         1.03319
     8642.20248         1.02873         1.03114
     8643.26854         1.01905         1.02864
     8644.33472         1.03876         1.02567
     8645.40104         1.03848         1.02225
     8646.46749         1.03753         1.01846
     8647.53407         1.01003         1.01438
     8648.60078         1.00274         1.01012
     8649.66762         1.01317         1.00578
     8650.73459         1.00038         1.00144
     8651.80170         0.99170         0.99708
     8652.86894         0.98564         0.99267
     8653.93631         0.97793         0.98806
     8655.00381         0.98635         0.98311
     8656.07144         0.97785         0.97764
     8657.13921         0.97416         0.97154
     8658.20710         0.96229         0.96478
     8659.27513         0.96269         0.95746
     8660.34329         0.95819         0.94982
     8661.41158         0.93820         0.94225
     8662.48000         0.93460         0.93524
     8663.54856         0.92980         0.92932
     8664.61724         0.92526         0.92497
     8665.68606         0.93215         0.92259
     8666.75501         0.92519         0.92240
     8667.82410         0.91463         0.92441
     8668.89331         0.90919         0.92844
     8669.96266         0.92069         0.93413
     8671.03213         0.93921         0.94101
     8672.10174         0.94979         0.94853
     8673.17148         0.94985         0.95622
     8674.24136         0.95664         0.96364
     8675.31136         0.97047         0.97051
     8676.38150         0.97543         0.97668
     8677.45177         0.98390         0.98213
     8678.52217         0.98541         0.98693
     8679.59271         0.97941         0.99121
     8680.66337         0.96818         0.99511
     8681.73417         0.97427         0.99875
     8682.80510         1.01154         1.00221
     8683.87616         1.02692         1.00553
     8684.94736         1.02100         1.00870
     8686.01868         1.03381         1.01171
     8687.09014         1.02507         1.01453
     8688.16173         1.00877         1.01716
     8689.23345         1.00509         1.01962
     8690.30531         1.00000         1.02193
     8691.37730         1.01120         1.02416
     8692.44942         1.02767         1.02635
     8693.52167         1.03640         1.02854
     8694.59405         1.03102         1.03076
     8695.66657         1.02548         1.03300
     8696.73922         1.03058         1.03521
     8697.81200         1.02288         1.03735
     8698.88491         1.02823         1.03934
     8699.95796         1.03162         1.04113
     8701.03113         1.06978         1.04266
     8702.10444         1.05938         1.04391
     8703.17789         1.04532         1.04488
     8704.25146         1.05715         1.04558
     8705.32517         1.04769         1.04605
     8706.39901         1.04091         1.04634
     8707.47298         1.05343         1.04650
     8708.54709         1.04402         1.04656
     8709.62132         1.04142         1.04657
     8710.69569         1.04429         1.04655
     8711.77020         1.04388         1.04654
     8712.84483         1.05852         1.04656
     8713.91960         1.05920         1.04661
     8714.99450         1.04911         1.04670
     8716.06953         1.06658         1.04686
     8717.14470         1.03794         1.04706
     8718.22000         1.05494         1.04731
     8719.29543         1.08257         1.04761
     8720.37099         1.04948         1.04792
     8721.44669         1.05912         1.04823
     8722.52251         1.05636         1.04852
     8723.59848         1.05612         1.04876
     8724.67457         1.05131         1.04895
     8725.75080         1.05564         1.04907
     8726.82716         1.05881         1.04911
     8727.90365         1.03539         1.04907
     8728.98027         1.03256         1.04896
     8730.05703         1.06184         1.04878
     8731.13392         1.05880         1.04852
     8732.21095         1.05203         1.04819
     8733.28810         1.06100         1.04779
     8734.36539         1.04944         1.04730
     8735.44281         1.06054         1.04674
     8736.52037         1.05958         1.04612
     8737.59806         1.04710         1.04545
     8738.67588         1.00999         1.04476
     8739.75383         1.02972         1.04410
     8740.83192         1.03123         1.04349
     8741.91014         1.04005         1.04298
     8742.98849         1.03626         1.04258
     8744.06698         1.04985         1.04231
     8745.14560         1.04968         1.04216
     8746.22435         1.05678         1.04210
     8747.30323         1.04335         1.04211
     8748.38225         1.04006         1.04215
     8749.46140         1.04870         1.04219
     8750.54069         1.05952         1.04220
     8751.62010         1.05758         1.04218
     8752.69966         1.03729         1.04212
     8753.77934         1.01910         1.04206
     8754.85916         1.02397         1.04201
     8755.93911         1.03005         1.04200
     8757.01919         1.03384         1.04206
     8758.09941         1.04952         1.04221
     8759.17976         1.06047         1.04243
     8760.26024         1.05622         1.04271
     8761.34086         1.04637         1.04303
     8762.42161         1.05069         1.04335
     8763.50249         1.04856         1.04362
     8764.58350         1.04651         1.04380
     8765.66465         1.03984         1.04387
     8766.74594         1.04164         1.04381
     8767.82735         1.04203         1.04362
     8768.90890         1.03411         1.04331
     8769.99059         1.03972         1.04291
     8771.07240         1.05055         1.04246
     8772.15435         1.03634         1.04200
     8773.23644         1.01679         1.04158
     8774.31866         1.02784         1.04124
     8775.40101         1.02725         1.04101
     8776.48349         1.02901         1.04092
     8777.56611         1.05175         1.04097
     8778.64886         1.04957         1.04116
     8779.73174         1.04296         1.04147
     8780.81476         1.05819         1.04187
     8781.89791         1.06037         1.04232
     8782.98120         1.05578         1.04277
     8784.06462         1.07108         1.04316
     8785.14817         1.05504         1.04346
     8786.23186         1.04393         1.04363
     8787.31568         1.05480         1.04363
     8788.39963         1.04674         1.04345
     8789.48372         1.05521         1.04312
