# Rest Wavelength (angstroms) using z=0.016561, Observed Flux, pPXF Best-fit Model
     8416.02740         1.00578         0.99109
     8417.06555         1.02341         0.98945
     8418.10384         1.03112         0.98799
     8419.14225         1.01793         0.98673
     8420.18078         0.99370         0.98563
     8421.21945         1.03030         0.98464
     8422.25824         1.03016         0.98373
     8423.29717         1.02616         0.98290
     8424.33622         1.01564         0.98222
     8425.37540         1.00200         0.98182
     8426.41470         0.99604         0.98181
     8427.45414         1.02135         0.98229
     8428.49370         1.01005         0.98320
     8429.53339         0.98892         0.98438
     8430.57321         0.99812         0.98551
     8431.61316         1.00602         0.98621
     8432.65324         1.00620         0.98613
     8433.69344         1.00345         0.98504
     8434.73378         0.99482         0.98291
     8435.77424         0.97017         0.97992
     8436.81483         0.96991         0.97642
     8437.85554         0.98697         0.97285
     8438.89639         0.97365         0.96959
     8439.93737         0.95375         0.96689
     8440.97847         0.95951         0.96484
     8442.01970         0.96436         0.96339
     8443.06106         0.96013         0.96241
     8444.10255         0.95640         0.96179
     8445.14417         0.94829         0.96145
     8446.18591         0.94175         0.96140
     8447.22779         0.93283         0.96166
     8448.26979         0.92976         0.96227
     8449.31192         0.94436         0.96321
     8450.35418         0.96522         0.96438
     8451.39657         0.98533         0.96561
     8452.43908         0.96772         0.96674
     8453.48173         0.95936         0.96762
     8454.52450         0.96658         0.96820
     8455.56741         0.97612         0.96853
     8456.61044         0.98306         0.96873
     8457.65360         0.98023         0.96898
     8458.69689         0.96478         0.96941
     8459.74030         0.93987         0.97009
     8460.78385         0.96945         0.97098
     8461.82752         0.97893         0.97191
     8462.87133         0.96371         0.97266
     8463.91526         0.95709         0.97300
     8464.95932         0.96159         0.97275
     8466.00351         0.94135         0.97188
     8467.04783         0.97916         0.97049
     8468.09228         0.98301         0.96882
     8469.13685         0.96749         0.96719
     8470.18156         0.94179         0.96592
     8471.22639         0.94714         0.96527
     8472.27135         0.94785         0.96539
     8473.31645         0.94393         0.96631
     8474.36167         0.96269         0.96795
     8475.40702         0.95799         0.97017
     8476.45249         0.94274         0.97280
     8477.49810         0.94108         0.97568
     8478.54384         0.94669         0.97866
     8479.58970         0.95174         0.98159
     8480.63570         0.95337         0.98433
     8481.68182         0.97691         0.98674
     8482.72808         0.99729         0.98870
     8483.77446         0.97440         0.99012
     8484.82097         0.96205         0.99099
     8485.86761         0.99341         0.99140
     8486.91438         0.98139         0.99150
     8487.96127         0.97891         0.99145
     8489.00830         0.99201         0.99137
     8490.05546         1.00312         0.99125
     8491.10274         0.97731         0.99088
     8492.15016         1.00294         0.98987
     8493.19770         1.02189         0.98769
     8494.24538         0.98940         0.98379
     8495.29318         0.97244         0.97782
     8496.34111         0.96874         0.96970
     8497.38917         0.95964         0.95976
     8498.43736         0.96031         0.94869
     8499.48568         0.96250         0.93743
     8500.53413         0.96012         0.92700
     8501.58271         0.95272         0.91827
     8502.63141         0.92340         0.91186
     8503.68025         0.92235         0.90806
     8504.72922         0.90571         0.90690
     8505.77831         0.90002         0.90820
     8506.82754         0.92294         0.91169
     8507.87689         0.91590         0.91705
     8508.92638         0.90935         0.92395
     8509.97599         0.92669         0.93198
     8511.02573         0.94739         0.94066
     8512.07560         0.96562         0.94944
     8513.12561         0.96923         0.95775
     8514.17574         0.97911         0.96511
     8515.22600         1.00250         0.97116
     8516.27639         0.99835         0.97576
     8517.32691         0.98259         0.97893
     8518.37756         1.00000         0.98088
     8519.42834         1.01379         0.98186
     8520.47925         1.00179         0.98213
     8521.53028         0.99666         0.98190
     8522.58145         0.99497         0.98128
     8523.63275         1.00390         0.98035
     8524.68418         0.98614         0.97915
     8525.73573         0.95417         0.97769
     8526.78742         0.96200         0.97603
     8527.83924         0.95858         0.97425
     8528.89118         0.98600         0.97244
     8529.94326         0.99019         0.97072
     8530.99547         0.98032         0.96917
     8532.04780         0.97008         0.96778
     8533.10027         0.97125         0.96641
     8534.15286         0.97469         0.96472
     8535.20559         0.96556         0.96213
     8536.25844         0.95271         0.95793
     8537.31143         0.94449         0.95133
     8538.36454         0.94539         0.94165
     8539.41779         0.93525         0.92856
     8540.47116         0.91496         0.91227
     8541.52467         0.88532         0.89352
     8542.57830         0.87126         0.87363
     8543.63206         0.85039         0.85422
     8544.68596         0.82564         0.83693
     8545.73998         0.82945         0.82317
     8546.79414         0.80941         0.81383
     8547.84842         0.79688         0.80930
     8548.90284         0.81521         0.80950
     8549.95738         0.81925         0.81400
     8551.01206         0.82716         0.82227
     8552.06686         0.85642         0.83375
     8553.12180         0.85886         0.84786
     8554.17686         0.86924         0.86402
     8555.23206         0.88732         0.88157
     8556.28738         0.89633         0.89975
     8557.34284         0.91547         0.91774
     8558.39842         0.95238         0.93472
     8559.45414         0.95832         0.95003
     8560.50999         0.95632         0.96319
     8561.56596         0.96576         0.97400
     8562.62207         0.96657         0.98248
     8563.67830         0.98601         0.98886
     8564.73467         1.00864         0.99348
     8565.79117         0.99837         0.99671
     8566.84780         0.98739         0.99893
     8567.90456         1.00167         1.00045
     8568.96144         0.99502         1.00154
     8570.01846         0.99516         1.00241
     8571.07561         1.00134         1.00321
     8572.13289         1.00052         1.00403
     8573.19030         0.98741         1.00492
     8574.24784         0.99954         1.00590
     8575.30551         1.00257         1.00694
     8576.36332         1.02589         1.00799
     8577.42125         1.01425         1.00898
     8578.47931         1.01606         1.00985
     8579.53750         1.01403         1.01054
     8580.59583         1.01201         1.01101
     8581.65428         1.02693         1.01122
     8582.71286         1.03921         1.01120
     8583.77158         1.03185         1.01096
     8584.83043         0.99886         1.01054
     8585.88940         0.99808         1.01002
     8586.94851         1.00622         1.00943
     8588.00775         1.01143         1.00884
     8589.06712         0.96359         1.00828
     8590.12661         0.99735         1.00774
     8591.18624         1.01832         1.00720
     8592.24600         0.98911         1.00661
     8593.30590         0.99630         1.00589
     8594.36592         0.99368         1.00498
     8595.42607         0.99671         1.00383
     8596.48635         1.00101         1.00246
     8597.54677         1.01786         1.00095
     8598.60731         1.03902         0.99945
     8599.66799         1.00805         0.99815
     8600.72880         1.00678         0.99724
     8601.78973         1.01759         0.99686
     8602.85080         1.01121         0.99710
     8603.91200         0.98980         0.99794
     8604.97333         0.99888         0.99930
     8606.03479         1.00498         1.00103
     8607.09638         1.01685         1.00297
     8608.15811         0.98831         1.00498
     8609.21996         0.99658         1.00694
     8610.28195         1.01794         1.00882
     8611.34406         1.00961         1.01058
     8612.40631         1.00998         1.01226
     8613.46869         0.99994         1.01388
     8614.53120         1.01269         1.01547
     8615.59384         1.01159         1.01703
     8616.65661         1.01599         1.01854
     8617.71951         1.02431         1.01995
     8618.78254         1.02359         1.02122
     8619.84571         1.01216         1.02233
     8620.90900         1.01350         1.02327
     8621.97243         1.02070         1.02409
     8623.03599         1.04008         1.02485
     8624.09968         1.05186         1.02562
     8625.16350         1.03406         1.02645
     8626.22745         1.03353         1.02732
     8627.29153         1.00835         1.02823
     8628.35575         1.00322         1.02910
     8629.42009         1.00449         1.02989
     8630.48457         1.02077         1.03057
     8631.54918         1.01899         1.03114
     8632.61392         1.04305         1.03161
     8633.67879         1.04202         1.03203
     8634.74379         1.04018         1.03244
     8635.80892         1.03393         1.03284
     8636.87419         1.02763         1.03324
     8637.93958         1.01014         1.03359
     8639.00511         1.00941         1.03384
     8640.07077         1.02692         1.03392
     8641.13656         1.04051         1.03376
     8642.20248         1.04013         1.03329
     8643.26854         1.03895         1.03242
     8644.33472         1.01516         1.03110
     8645.40104         0.99297         1.02927
     8646.46749         1.02867         1.02695
     8647.53407         1.04483         1.02418
     8648.60078         1.01110         1.02112
     8649.66762         1.00064         1.01796
     8650.73459         0.99585         1.01495
     8651.80170         1.00683         1.01230
     8652.86894         0.99400         1.01012
     8653.93631         1.02059         1.00829
     8655.00381         1.00156         1.00642
     8656.07144         1.01333         1.00386
     8657.13921         0.98990         0.99976
     8658.20710         0.98260         0.99328
     8659.27513         0.98190         0.98382
     8660.34329         0.97809         0.97122
     8661.41158         0.96801         0.95593
     8662.48000         0.94534         0.93897
     8663.54856         0.90344         0.92180
     8664.61724         0.87602         0.90603
     8665.68606         0.88406         0.89307
     8666.75501         0.90001         0.88392
     8667.82410         0.88325         0.87898
     8668.89331         0.85569         0.87815
     8669.96266         0.85110         0.88094
     8671.03213         0.88126         0.88671
     8672.10174         0.89865         0.89484
     8673.17148         0.89529         0.90479
     8674.24136         0.92835         0.91614
     8675.31136         0.95388         0.92847
     8676.38150         0.94162         0.94130
     8677.45177         0.92419         0.95406
     8678.52217         0.92720         0.96612
     8679.59271         0.94399         0.97685
     8680.66337         0.96885         0.98577
     8681.73417         0.99432         0.99260
     8682.80510         1.00917         0.99729
     8683.87616         1.02481         1.00004
     8684.94736         1.01643         1.00118
     8686.01868         0.97517         1.00115
     8687.09014         0.97349         1.00040
     8688.16173         1.00215         0.99934
     8689.23345         0.98845         0.99834
     8690.30531         1.00842         0.99771
     8691.37730         1.03236         0.99768
     8692.44942         1.03056         0.99839
     8693.52167         1.00674         0.99991
     8694.59405         0.98078         1.00221
     8695.66657         0.99660         1.00514
     8696.73922         1.01269         1.00853
     8697.81200         1.02611         1.01216
     8698.88491         1.01759         1.01583
     8699.95796         1.00502         1.01938
     8701.03113         1.02047         1.02272
     8702.10444         1.04834         1.02577
     8703.17789         1.05160         1.02853
     8704.25146         1.06594         1.03097
     8705.32517         1.05924         1.03306
     8706.39901         1.04364         1.03478
     8707.47298         1.02486         1.03609
     8708.54709         1.03909         1.03698
     8709.62132         1.04109         1.03748
     8710.69569         1.02317         1.03763
     8711.77020         1.00475         1.03753
     8712.84483         1.03791         1.03728
     8713.91960         1.03865         1.03697
     8714.99450         1.02387         1.03667
     8716.06953         1.05761         1.03642
     8717.14470         1.06242         1.03626
     8718.22000         1.04901         1.03618
     8719.29543         1.04376         1.03622
     8720.37099         1.03439         1.03639
     8721.44669         1.02710         1.03673
     8722.52251         1.04528         1.03725
     8723.59848         1.07757         1.03791
     8724.67457         1.04652         1.03865
     8725.75080         1.04313         1.03938
     8726.82716         1.05897         1.04000
     8727.90365         1.04918         1.04042
     8728.98027         1.03150         1.04059
     8730.05703         1.05329         1.04049
     8731.13392         1.04798         1.04011
     8732.21095         1.04742         1.03949
     8733.28810         1.01953         1.03863
     8734.36539         1.04361         1.03756
     8735.44281         1.02309         1.03630
     8736.52037         1.03987         1.03490
     8737.59806         1.02357         1.03345
     8738.67588         1.05225         1.03204
     8739.75383         1.08326         1.03077
     8740.83192         1.07785         1.02972
     8741.91014         1.03572         1.02891
     8742.98849         1.01526         1.02835
     8744.06698         1.01923         1.02794
     8745.14560         0.98919         1.02761
     8746.22435         0.99958         1.02723
     8747.30323         1.00644         1.02673
     8748.38225         1.01488         1.02607
     8749.46140         1.01739         1.02524
     8750.54069         1.01494         1.02431
     8751.62010         1.00886         1.02337
     8752.69966         1.01429         1.02255
     8753.77934         1.01398         1.02194
     8754.85916         1.00617         1.02165
     8755.93911         1.03912         1.02173
     8757.01919         1.06462         1.02220
     8758.09941         1.07132         1.02303
     8759.17976         1.04954         1.02418
     8760.26024         1.02572         1.02556
     8761.34086         1.02502         1.02706
     8762.42161         1.03071         1.02854
     8763.50249         1.03828         1.02989
     8764.58350         1.03161         1.03100
     8765.66465         1.03574         1.03178
     8766.74594         1.04071         1.03219
     8767.82735         1.02241         1.03221
     8768.90890         1.01393         1.03184
     8769.99059         1.00020         1.03111
     8771.07240         0.97474         1.03007
     8772.15435         1.00663         1.02878
     8773.23644         1.05186         1.02731
     8774.31866         1.04335         1.02577
     8775.40101         1.01403         1.02429
     8776.48349         0.98729         1.02295
     8777.56611         1.01567         1.02185
     8778.64886         1.04070         1.02102
     8779.73174         1.02382         1.02045
     8780.81476         0.99575         1.02008
     8781.89791         1.01889         1.01985
     8782.98120         1.05435         1.01966
     8784.06462         1.03836         1.01942
     8785.14817         1.03123         1.01905
     8786.23186         1.01806         1.01846
     8787.31568         1.01885         1.01759
     8788.39963         1.01689         1.01637
     8789.48372         1.02073         1.01476
